File: 0.5ml.txt
'RawData - Storage 161900 - 0.5ml.spc'
'Wavelength nm.','Abs.'
300.00,0.408
302.00,0.377
304.00,0.344
306.00,0.316
308.00,0.285
310.00,0.257
312.00,0.234
314.00,0.214
316.00,0.198
318.00,0.185
320.00,0.177
322.00,0.172
324.00,0.173
326.00,0.178
328.00,0.187
330.00,0.201
332.00,0.223
334.00,0.253
336.00,0.292
338.00,0.342
340.00,0.397
342.00,0.458
344.00,0.516
346.00,0.570
348.00,0.617
350.00,0.657
352.00,0.691
354.00,0.724
356.00,0.755
358.00,0.789
360.00,0.824
362.00,0.861
364.00,0.900
366.00,0.942
368.00,0.984
370.00,1.028
372.00,1.072
374.00,1.114
376.00,1.161
378.00,1.202
380.00,1.246
382.00,1.286
384.00,1.328
386.00,1.372
388.00,1.419
390.00,1.472
392.00,1.521
394.00,1.574
396.00,1.631
398.00,1.686
400.00,1.747
402.00,1.807
404.00,1.872
406.00,1.933
408.00,2.004
410.00,2.062
412.00,2.120
414.00,2.176
416.00,2.229
418.00,2.271
420.00,2.314
422.00,2.349
424.00,2.389
426.00,2.406
428.00,2.417
430.00,2.431
432.00,2.422
434.00,2.423
436.00,2.407
438.00,2.388
440.00,2.362
442.00,2.331
444.00,2.290
446.00,2.243
448.00,2.191
450.00,2.140
452.00,2.083
454.00,2.020
456.00,1.956
458.00,1.886
460.00,1.818
462.00,1.748
464.00,1.677
466.00,1.607
468.00,1.539
470.00,1.471
472.00,1.408
474.00,1.343
476.00,1.281
478.00,1.223
480.00,1.167
482.00,1.114
484.00,1.061
486.00,1.012
488.00,0.965
490.00,0.922
492.00,0.880
494.00,0.842
496.00,0.805
498.00,0.771
500.00,0.738
502.00,0.708
504.00,0.679
506.00,0.652
508.00,0.625
510.00,0.600
512.00,0.577
514.00,0.555
516.00,0.533
518.00,0.514
520.00,0.494
522.00,0.476
524.00,0.459
526.00,0.443
528.00,0.427
530.00,0.412
532.00,0.398
534.00,0.384
536.00,0.371
538.00,0.359
540.00,0.347
542.00,0.336
544.00,0.326
546.00,0.315
548.00,0.306
550.00,0.297
552.00,0.288
554.00,0.280
556.00,0.272
558.00,0.265
560.00,0.258
562.00,0.251
564.00,0.244
566.00,0.238
568.00,0.232
570.00,0.226
572.00,0.221
574.00,0.215
576.00,0.210
578.00,0.206
580.00,0.201
582.00,0.196
584.00,0.192
586.00,0.188
588.00,0.184
590.00,0.180
592.00,0.177
594.00,0.173
596.00,0.170
598.00,0.167
600.00,0.164
602.00,0.161
604.00,0.158
606.00,0.155
608.00,0.153
610.00,0.150
612.00,0.148
614.00,0.145
616.00,0.143
618.00,0.141
620.00,0.139
622.00,0.136
624.00,0.134
626.00,0.132
628.00,0.130
630.00,0.128
632.00,0.127
634.00,0.125
636.00,0.123
638.00,0.121
640.00,0.119
642.00,0.117
644.00,0.116
646.00,0.114
648.00,0.113
650.00,0.111
652.00,0.110
654.00,0.108
656.00,0.107
658.00,0.106
660.00,0.104
662.00,0.103
664.00,0.102
666.00,0.101
668.00,0.099
670.00,0.098
672.00,0.097
674.00,0.096
676.00,0.095
678.00,0.094
680.00,0.092
682.00,0.091
684.00,0.090
686.00,0.089
688.00,0.088
690.00,0.087
692.00,0.086
694.00,0.085
696.00,0.084
698.00,0.083
700.00,0.082
702.00,0.081
704.00,0.080
706.00,0.079
708.00,0.078
710.00,0.077
712.00,0.077
714.00,0.076
716.00,0.075
718.00,0.074
720.00,0.073
722.00,0.073
724.00,0.072
726.00,0.071
728.00,0.071
730.00,0.070
732.00,0.069
734.00,0.069
736.00,0.068
738.00,0.067
740.00,0.067
742.00,0.066
744.00,0.065
746.00,0.064
748.00,0.064
750.00,0.063
752.00,0.062
754.00,0.062
756.00,0.061
758.00,0.060
760.00,0.059
762.00,0.059
764.00,0.058
766.00,0.057
768.00,0.057
770.00,0.056
772.00,0.056
774.00,0.055
776.00,0.054
778.00,0.054
780.00,0.053
782.00,0.053
784.00,0.052
786.00,0.052
788.00,0.051
790.00,0.051
792.00,0.050
794.00,0.050
796.00,0.050
798.00,0.049
800.00,0.049