File: 1.5ml_diluted2.txt
'RawData - Storage 162117 - 1.5ml_diluted2.spc'
'Wavelength nm.','Abs.'
300.00,0.127
302.00,0.117
304.00,0.108
306.00,0.099
308.00,0.090
310.00,0.081
312.00,0.074
314.00,0.068
316.00,0.063
318.00,0.059
320.00,0.056
322.00,0.055
324.00,0.055
326.00,0.057
328.00,0.059
330.00,0.064
332.00,0.070
334.00,0.079
336.00,0.091
338.00,0.107
340.00,0.124
342.00,0.141
344.00,0.160
346.00,0.176
348.00,0.189
350.00,0.202
352.00,0.212
354.00,0.223
356.00,0.232
358.00,0.242
360.00,0.252
362.00,0.263
364.00,0.275
366.00,0.287
368.00,0.300
370.00,0.313
372.00,0.327
374.00,0.340
376.00,0.353
378.00,0.366
380.00,0.378
382.00,0.391
384.00,0.404
386.00,0.418
388.00,0.431
390.00,0.446
392.00,0.462
394.00,0.478
396.00,0.494
398.00,0.512
400.00,0.530
402.00,0.548
404.00,0.568
406.00,0.586
408.00,0.606
410.00,0.625
412.00,0.642
414.00,0.659
416.00,0.674
418.00,0.689
420.00,0.700
422.00,0.711
424.00,0.719
426.00,0.725
428.00,0.729
430.00,0.730
432.00,0.730
434.00,0.727
436.00,0.722
438.00,0.714
440.00,0.706
442.00,0.694
444.00,0.682
446.00,0.668
448.00,0.652
450.00,0.635
452.00,0.618
454.00,0.598
456.00,0.579
458.00,0.558
460.00,0.537
462.00,0.516
464.00,0.495
466.00,0.474
468.00,0.454
470.00,0.434
472.00,0.415
474.00,0.396
476.00,0.379
478.00,0.361
480.00,0.345
482.00,0.330
484.00,0.314
486.00,0.300
488.00,0.287
490.00,0.274
492.00,0.262
494.00,0.251
496.00,0.240
498.00,0.230
500.00,0.221
502.00,0.212
504.00,0.204
506.00,0.196
508.00,0.188
510.00,0.181
512.00,0.174
514.00,0.168
516.00,0.162
518.00,0.156
520.00,0.150
522.00,0.145
524.00,0.140
526.00,0.135
528.00,0.130
530.00,0.126
532.00,0.122
534.00,0.118
536.00,0.114
538.00,0.110
540.00,0.107
542.00,0.103
544.00,0.100
546.00,0.097
548.00,0.095
550.00,0.092
552.00,0.089
554.00,0.087
556.00,0.085
558.00,0.083
560.00,0.080
562.00,0.079
564.00,0.077
566.00,0.075
568.00,0.073
570.00,0.072
572.00,0.070
574.00,0.069
576.00,0.067
578.00,0.066
580.00,0.065
582.00,0.063
584.00,0.062
586.00,0.061
588.00,0.060
590.00,0.059
592.00,0.058
594.00,0.056
596.00,0.055
598.00,0.054
600.00,0.054
602.00,0.053
604.00,0.052
606.00,0.051
608.00,0.050
610.00,0.049
612.00,0.048
614.00,0.047
616.00,0.047
618.00,0.046
620.00,0.045
622.00,0.044
624.00,0.044
626.00,0.043
628.00,0.042
630.00,0.042
632.00,0.041
634.00,0.041
636.00,0.040
638.00,0.039
640.00,0.039
642.00,0.038
644.00,0.038
646.00,0.037
648.00,0.037
650.00,0.037
652.00,0.036
654.00,0.036
656.00,0.035
658.00,0.035
660.00,0.035
662.00,0.034
664.00,0.034
666.00,0.033
668.00,0.033
670.00,0.033
672.00,0.032
674.00,0.032
676.00,0.032
678.00,0.031
680.00,0.031
682.00,0.031
684.00,0.030
686.00,0.030
688.00,0.030
690.00,0.029
692.00,0.029
694.00,0.029
696.00,0.028
698.00,0.028
700.00,0.028
702.00,0.028
704.00,0.027
706.00,0.027
708.00,0.027
710.00,0.026
712.00,0.026
714.00,0.026
716.00,0.026
718.00,0.025
720.00,0.025
722.00,0.025
724.00,0.025
726.00,0.024
728.00,0.024
730.00,0.024
732.00,0.024
734.00,0.024
736.00,0.023
738.00,0.023
740.00,0.023
742.00,0.023
744.00,0.023
746.00,0.022
748.00,0.022
750.00,0.022
752.00,0.022
754.00,0.022
756.00,0.021
758.00,0.021
760.00,0.021
762.00,0.021
764.00,0.021
766.00,0.020
768.00,0.020
770.00,0.020
772.00,0.020
774.00,0.020
776.00,0.020
778.00,0.020
780.00,0.019
782.00,0.019
784.00,0.019
786.00,0.019
788.00,0.019
790.00,0.019
792.00,0.019
794.00,0.019
796.00,0.018
798.00,0.018
800.00,0.018