File: 1ml_diluted1.txt
'RawData - Storage 161250 - 1ml_diluted1.spc'
'Wavelength nm.','Abs.'
300.00,0.311
302.00,0.289
304.00,0.265
306.00,0.243
308.00,0.219
310.00,0.199
312.00,0.182
314.00,0.167
316.00,0.155
318.00,0.145
320.00,0.138
322.00,0.134
324.00,0.134
326.00,0.138
328.00,0.145
330.00,0.155
332.00,0.170
334.00,0.191
336.00,0.219
338.00,0.254
340.00,0.294
342.00,0.335
344.00,0.375
346.00,0.411
348.00,0.440
350.00,0.468
352.00,0.490
354.00,0.510
356.00,0.531
358.00,0.552
360.00,0.575
362.00,0.599
364.00,0.624
366.00,0.652
368.00,0.679
370.00,0.708
372.00,0.736
374.00,0.765
376.00,0.791
378.00,0.819
380.00,0.845
382.00,0.871
384.00,0.897
386.00,0.925
388.00,0.953
390.00,0.983
392.00,1.017
394.00,1.051
396.00,1.087
398.00,1.124
400.00,1.162
402.00,1.200
404.00,1.242
406.00,1.282
408.00,1.324
410.00,1.365
412.00,1.405
414.00,1.443
416.00,1.479
418.00,1.515
420.00,1.543
422.00,1.570
424.00,1.594
426.00,1.612
428.00,1.627
430.00,1.637
432.00,1.642
434.00,1.643
436.00,1.637
438.00,1.630
440.00,1.618
442.00,1.602
444.00,1.582
446.00,1.558
448.00,1.532
450.00,1.504
452.00,1.474
454.00,1.439
456.00,1.403
458.00,1.365
460.00,1.325
462.00,1.285
464.00,1.244
466.00,1.202
468.00,1.161
470.00,1.119
472.00,1.079
474.00,1.037
476.00,0.997
478.00,0.958
480.00,0.920
482.00,0.884
484.00,0.847
486.00,0.812
488.00,0.779
490.00,0.747
492.00,0.716
494.00,0.688
496.00,0.660
498.00,0.634
500.00,0.609
502.00,0.585
504.00,0.563
506.00,0.541
508.00,0.519
510.00,0.500
512.00,0.481
514.00,0.463
516.00,0.446
518.00,0.430
520.00,0.414
522.00,0.399
524.00,0.385
526.00,0.371
528.00,0.359
530.00,0.346
532.00,0.335
534.00,0.323
536.00,0.313
538.00,0.303
540.00,0.293
542.00,0.284
544.00,0.276
546.00,0.267
548.00,0.260
550.00,0.252
552.00,0.245
554.00,0.238
556.00,0.231
558.00,0.225
560.00,0.219
562.00,0.213
564.00,0.207
566.00,0.202
568.00,0.197
570.00,0.193
572.00,0.188
574.00,0.184
576.00,0.180
578.00,0.176
580.00,0.172
582.00,0.168
584.00,0.165
586.00,0.162
588.00,0.158
590.00,0.155
592.00,0.152
594.00,0.149
596.00,0.147
598.00,0.144
600.00,0.142
602.00,0.139
604.00,0.137
606.00,0.134
608.00,0.132
610.00,0.130
612.00,0.128
614.00,0.125
616.00,0.123
618.00,0.121
620.00,0.119
622.00,0.118
624.00,0.116
626.00,0.114
628.00,0.112
630.00,0.111
632.00,0.109
634.00,0.107
636.00,0.106
638.00,0.104
640.00,0.103
642.00,0.101
644.00,0.100
646.00,0.098
648.00,0.097
650.00,0.096
652.00,0.095
654.00,0.094
656.00,0.092
658.00,0.091
660.00,0.091
662.00,0.090
664.00,0.089
666.00,0.088
668.00,0.087
670.00,0.086
672.00,0.086
674.00,0.085
676.00,0.084
678.00,0.083
680.00,0.082
682.00,0.082
684.00,0.081
686.00,0.080
688.00,0.080
690.00,0.079
692.00,0.078
694.00,0.077
696.00,0.077
698.00,0.076
700.00,0.075
702.00,0.075
704.00,0.074
706.00,0.073
708.00,0.073
710.00,0.073
712.00,0.072
714.00,0.071
716.00,0.070
718.00,0.070
720.00,0.069
722.00,0.068
724.00,0.068
726.00,0.067
728.00,0.066
730.00,0.066
732.00,0.065
734.00,0.064
736.00,0.064
738.00,0.064
740.00,0.063
742.00,0.063
744.00,0.063
746.00,0.062
748.00,0.062
750.00,0.061
752.00,0.061
754.00,0.061
756.00,0.060
758.00,0.059
760.00,0.059
762.00,0.059
764.00,0.058
766.00,0.058
768.00,0.057
770.00,0.057
772.00,0.057
774.00,0.056
776.00,0.056
778.00,0.055
780.00,0.055
782.00,0.054
784.00,0.054
786.00,0.053
788.00,0.053
790.00,0.052
792.00,0.052
794.00,0.051
796.00,0.051
798.00,0.050
800.00,0.050