File: 1ml_diluted3.txt
'RawData - Storage 161645 - 1ml_diluted3.spc'
'Wavelength nm.','Abs.'
300.00,0.065
302.00,0.060
304.00,0.056
306.00,0.053
308.00,0.048
310.00,0.044
312.00,0.041
314.00,0.039
316.00,0.036
318.00,0.035
320.00,0.034
322.00,0.032
324.00,0.032
326.00,0.033
328.00,0.034
330.00,0.036
332.00,0.039
334.00,0.042
336.00,0.046
338.00,0.052
340.00,0.060
342.00,0.067
344.00,0.075
346.00,0.080
348.00,0.086
350.00,0.091
352.00,0.095
354.00,0.099
356.00,0.102
358.00,0.106
360.00,0.110
362.00,0.114
364.00,0.119
366.00,0.123
368.00,0.127
370.00,0.133
372.00,0.137
374.00,0.142
376.00,0.147
378.00,0.152
380.00,0.157
382.00,0.161
384.00,0.166
386.00,0.171
388.00,0.176
390.00,0.181
392.00,0.187
394.00,0.193
396.00,0.199
398.00,0.205
400.00,0.211
402.00,0.218
404.00,0.225
406.00,0.232
408.00,0.240
410.00,0.247
412.00,0.254
414.00,0.261
416.00,0.267
418.00,0.273
420.00,0.278
422.00,0.282
424.00,0.286
426.00,0.289
428.00,0.291
430.00,0.292
432.00,0.293
434.00,0.293
436.00,0.291
438.00,0.290
440.00,0.288
442.00,0.285
444.00,0.281
446.00,0.277
448.00,0.272
450.00,0.267
452.00,0.262
454.00,0.256
456.00,0.249
458.00,0.243
460.00,0.236
462.00,0.228
464.00,0.221
466.00,0.214
468.00,0.206
470.00,0.199
472.00,0.192
474.00,0.185
476.00,0.178
478.00,0.171
480.00,0.165
482.00,0.158
484.00,0.152
486.00,0.146
488.00,0.140
490.00,0.134
492.00,0.129
494.00,0.124
496.00,0.119
498.00,0.115
500.00,0.110
502.00,0.106
504.00,0.103
506.00,0.099
508.00,0.095
510.00,0.092
512.00,0.089
514.00,0.086
516.00,0.083
518.00,0.080
520.00,0.078
522.00,0.075
524.00,0.073
526.00,0.071
528.00,0.069
530.00,0.067
532.00,0.064
534.00,0.063
536.00,0.061
538.00,0.059
540.00,0.057
542.00,0.056
544.00,0.054
546.00,0.053
548.00,0.051
550.00,0.050
552.00,0.048
554.00,0.047
556.00,0.046
558.00,0.045
560.00,0.044
562.00,0.043
564.00,0.042
566.00,0.041
568.00,0.040
570.00,0.039
572.00,0.038
574.00,0.037
576.00,0.037
578.00,0.036
580.00,0.035
582.00,0.035
584.00,0.034
586.00,0.034
588.00,0.033
590.00,0.033
592.00,0.032
594.00,0.032
596.00,0.031
598.00,0.031
600.00,0.031
602.00,0.030
604.00,0.030
606.00,0.029
608.00,0.029
610.00,0.029
612.00,0.028
614.00,0.028
616.00,0.028
618.00,0.027
620.00,0.027
622.00,0.027
624.00,0.026
626.00,0.026
628.00,0.026
630.00,0.025
632.00,0.025
634.00,0.025
636.00,0.025
638.00,0.024
640.00,0.024
642.00,0.024
644.00,0.023
646.00,0.023
648.00,0.023
650.00,0.023
652.00,0.022
654.00,0.022
656.00,0.022
658.00,0.022
660.00,0.022
662.00,0.022
664.00,0.021
666.00,0.021
668.00,0.021
670.00,0.021
672.00,0.021
674.00,0.021
676.00,0.021
678.00,0.021
680.00,0.021
682.00,0.021
684.00,0.020
686.00,0.020
688.00,0.020
690.00,0.020
692.00,0.020
694.00,0.020
696.00,0.020
698.00,0.020
700.00,0.020
702.00,0.019
704.00,0.019
706.00,0.019
708.00,0.019
710.00,0.019
712.00,0.019
714.00,0.019
716.00,0.018
718.00,0.018
720.00,0.018
722.00,0.018
724.00,0.018
726.00,0.018
728.00,0.017
730.00,0.017
732.00,0.017
734.00,0.017
736.00,0.017
738.00,0.017
740.00,0.017
742.00,0.016
744.00,0.016
746.00,0.016
748.00,0.016
750.00,0.016
752.00,0.016
754.00,0.016
756.00,0.015
758.00,0.015
760.00,0.015
762.00,0.015
764.00,0.015
766.00,0.015
768.00,0.015
770.00,0.014
772.00,0.014
774.00,0.014
776.00,0.014
778.00,0.014
780.00,0.014
782.00,0.014
784.00,0.014
786.00,0.014
788.00,0.014
790.00,0.013
792.00,0.013
794.00,0.013
796.00,0.013
798.00,0.013
800.00,0.013