File: 1ml_diluted2.txt
'RawData - Storage 161502 - 1ml_diluted2.spc'
'Wavelength nm.','Abs.'
300.00,0.127
302.00,0.119
304.00,0.110
306.00,0.102
308.00,0.092
310.00,0.084
312.00,0.078
314.00,0.073
316.00,0.067
318.00,0.063
320.00,0.061
322.00,0.058
324.00,0.058
326.00,0.060
328.00,0.062
330.00,0.067
332.00,0.072
334.00,0.080
336.00,0.091
338.00,0.104
340.00,0.120
342.00,0.136
344.00,0.151
346.00,0.164
348.00,0.176
350.00,0.187
352.00,0.195
354.00,0.204
356.00,0.211
358.00,0.220
360.00,0.228
362.00,0.237
364.00,0.247
366.00,0.257
368.00,0.268
370.00,0.279
372.00,0.289
374.00,0.300
376.00,0.310
378.00,0.320
380.00,0.330
382.00,0.340
384.00,0.350
386.00,0.361
388.00,0.372
390.00,0.383
392.00,0.396
394.00,0.408
396.00,0.422
398.00,0.436
400.00,0.450
402.00,0.465
404.00,0.481
406.00,0.496
408.00,0.512
410.00,0.527
412.00,0.543
414.00,0.557
416.00,0.571
418.00,0.584
420.00,0.594
422.00,0.604
424.00,0.613
426.00,0.619
428.00,0.624
430.00,0.627
432.00,0.629
434.00,0.628
436.00,0.627
438.00,0.623
440.00,0.618
442.00,0.611
444.00,0.604
446.00,0.595
448.00,0.585
450.00,0.574
452.00,0.562
454.00,0.549
456.00,0.535
458.00,0.520
460.00,0.505
462.00,0.490
464.00,0.474
466.00,0.458
468.00,0.442
470.00,0.426
472.00,0.411
474.00,0.395
476.00,0.380
478.00,0.365
480.00,0.351
482.00,0.337
484.00,0.324
486.00,0.310
488.00,0.298
490.00,0.286
492.00,0.274
494.00,0.263
496.00,0.253
498.00,0.243
500.00,0.234
502.00,0.225
504.00,0.216
506.00,0.208
508.00,0.201
510.00,0.193
512.00,0.186
514.00,0.180
516.00,0.173
518.00,0.167
520.00,0.162
522.00,0.156
524.00,0.151
526.00,0.146
528.00,0.141
530.00,0.137
532.00,0.132
534.00,0.128
536.00,0.124
538.00,0.120
540.00,0.116
542.00,0.113
544.00,0.110
546.00,0.107
548.00,0.104
550.00,0.101
552.00,0.098
554.00,0.095
556.00,0.093
558.00,0.090
560.00,0.088
562.00,0.086
564.00,0.084
566.00,0.082
568.00,0.080
570.00,0.078
572.00,0.076
574.00,0.075
576.00,0.073
578.00,0.072
580.00,0.071
582.00,0.069
584.00,0.068
586.00,0.067
588.00,0.065
590.00,0.064
592.00,0.063
594.00,0.062
596.00,0.061
598.00,0.060
600.00,0.059
602.00,0.059
604.00,0.058
606.00,0.057
608.00,0.056
610.00,0.055
612.00,0.055
614.00,0.054
616.00,0.053
618.00,0.052
620.00,0.052
622.00,0.051
624.00,0.050
626.00,0.050
628.00,0.049
630.00,0.048
632.00,0.048
634.00,0.047
636.00,0.047
638.00,0.046
640.00,0.045
642.00,0.045
644.00,0.044
646.00,0.044
648.00,0.043
650.00,0.043
652.00,0.042
654.00,0.042
656.00,0.042
658.00,0.041
660.00,0.041
662.00,0.040
664.00,0.040
666.00,0.040
668.00,0.039
670.00,0.039
672.00,0.039
674.00,0.038
676.00,0.038
678.00,0.038
680.00,0.038
682.00,0.037
684.00,0.037
686.00,0.037
688.00,0.036
690.00,0.036
692.00,0.036
694.00,0.036
696.00,0.035
698.00,0.035
700.00,0.035
702.00,0.034
704.00,0.034
706.00,0.034
708.00,0.034
710.00,0.033
712.00,0.033
714.00,0.033
716.00,0.033
718.00,0.032
720.00,0.032
722.00,0.032
724.00,0.032
726.00,0.031
728.00,0.031
730.00,0.031
732.00,0.030
734.00,0.030
736.00,0.030
738.00,0.030
740.00,0.029
742.00,0.029
744.00,0.029
746.00,0.029
748.00,0.028
750.00,0.028
752.00,0.028
754.00,0.028
756.00,0.027
758.00,0.027
760.00,0.027
762.00,0.027
764.00,0.026
766.00,0.026
768.00,0.026
770.00,0.026
772.00,0.026
774.00,0.025
776.00,0.025
778.00,0.025
780.00,0.025
782.00,0.025
784.00,0.025
786.00,0.024
788.00,0.024
790.00,0.024
792.00,0.024
794.00,0.024
796.00,0.024
798.00,0.024
800.00,0.024