File: 2ml_diluted3.txt
'RawData - Storage 160641 - 2ml_diluted3.spc'
'Wavelength nm.','Abs.'
300.00,0.181
302.00,0.167
304.00,0.153
306.00,0.141
308.00,0.128
310.00,0.116
312.00,0.106
314.00,0.098
316.00,0.091
318.00,0.086
320.00,0.082
322.00,0.080
324.00,0.080
326.00,0.083
328.00,0.087
330.00,0.094
332.00,0.104
334.00,0.118
336.00,0.135
338.00,0.158
340.00,0.184
342.00,0.211
344.00,0.238
346.00,0.264
348.00,0.287
350.00,0.308
352.00,0.326
354.00,0.343
356.00,0.359
358.00,0.377
360.00,0.394
362.00,0.413
364.00,0.433
366.00,0.454
368.00,0.476
370.00,0.497
372.00,0.519
374.00,0.541
376.00,0.561
378.00,0.582
380.00,0.602
382.00,0.621
384.00,0.642
386.00,0.663
388.00,0.684
390.00,0.706
392.00,0.730
394.00,0.753
396.00,0.778
398.00,0.803
400.00,0.827
402.00,0.853
404.00,0.880
406.00,0.904
408.00,0.930
410.00,0.954
412.00,0.977
414.00,0.997
416.00,1.016
418.00,1.031
420.00,1.044
422.00,1.053
424.00,1.059
426.00,1.061
428.00,1.060
430.00,1.055
432.00,1.047
434.00,1.037
436.00,1.023
438.00,1.006
440.00,0.986
442.00,0.964
444.00,0.940
446.00,0.914
448.00,0.887
450.00,0.858
452.00,0.829
454.00,0.798
456.00,0.766
458.00,0.735
460.00,0.703
462.00,0.673
464.00,0.643
466.00,0.614
468.00,0.586
470.00,0.558
472.00,0.533
474.00,0.507
476.00,0.484
478.00,0.461
480.00,0.440
482.00,0.420
484.00,0.401
486.00,0.382
488.00,0.365
490.00,0.349
492.00,0.334
494.00,0.319
496.00,0.306
498.00,0.293
500.00,0.281
502.00,0.270
504.00,0.259
506.00,0.248
508.00,0.239
510.00,0.229
512.00,0.220
514.00,0.212
516.00,0.204
518.00,0.197
520.00,0.190
522.00,0.183
524.00,0.177
526.00,0.171
528.00,0.165
530.00,0.160
532.00,0.155
534.00,0.150
536.00,0.145
538.00,0.141
540.00,0.136
542.00,0.132
544.00,0.129
546.00,0.125
548.00,0.122
550.00,0.118
552.00,0.115
554.00,0.112
556.00,0.110
558.00,0.107
560.00,0.104
562.00,0.102
564.00,0.099
566.00,0.097
568.00,0.095
570.00,0.093
572.00,0.091
574.00,0.089
576.00,0.087
578.00,0.085
580.00,0.084
582.00,0.082
584.00,0.081
586.00,0.079
588.00,0.078
590.00,0.077
592.00,0.075
594.00,0.074
596.00,0.073
598.00,0.072
600.00,0.071
602.00,0.070
604.00,0.069
606.00,0.068
608.00,0.067
610.00,0.066
612.00,0.065
614.00,0.064
616.00,0.063
618.00,0.062
620.00,0.061
622.00,0.061
624.00,0.060
626.00,0.059
628.00,0.058
630.00,0.058
632.00,0.057
634.00,0.056
636.00,0.055
638.00,0.055
640.00,0.054
642.00,0.053
644.00,0.053
646.00,0.052
648.00,0.052
650.00,0.051
652.00,0.051
654.00,0.050
656.00,0.050
658.00,0.049
660.00,0.049
662.00,0.048
664.00,0.048
666.00,0.047
668.00,0.047
670.00,0.046
672.00,0.046
674.00,0.045
676.00,0.045
678.00,0.045
680.00,0.044
682.00,0.044
684.00,0.043
686.00,0.043
688.00,0.043
690.00,0.042
692.00,0.042
694.00,0.041
696.00,0.041
698.00,0.041
700.00,0.040
702.00,0.040
704.00,0.040
706.00,0.039
708.00,0.039
710.00,0.039
712.00,0.039
714.00,0.038
716.00,0.038
718.00,0.038
720.00,0.038
722.00,0.038
724.00,0.037
726.00,0.037
728.00,0.037
730.00,0.036
732.00,0.036
734.00,0.036
736.00,0.036
738.00,0.035
740.00,0.035
742.00,0.035
744.00,0.035
746.00,0.034
748.00,0.034
750.00,0.034
752.00,0.033
754.00,0.033
756.00,0.033
758.00,0.033
760.00,0.032
762.00,0.032
764.00,0.032
766.00,0.032
768.00,0.031
770.00,0.031
772.00,0.031
774.00,0.031
776.00,0.030
778.00,0.030
780.00,0.030
782.00,0.030
784.00,0.030
786.00,0.030
788.00,0.029
790.00,0.029
792.00,0.029
794.00,0.029
796.00,0.029
798.00,0.029
800.00,0.028