File: 2ml_diluted2.txt
'RawData - Storage 160111 - 2ml_diluted2.spc'
'Wavelength nm.','Abs.'
300.00,0.517
302.00,0.478
304.00,0.437
306.00,0.401
308.00,0.363
310.00,0.331
312.00,0.302
314.00,0.278
316.00,0.258
318.00,0.243
320.00,0.232
322.00,0.227
324.00,0.227
326.00,0.232
328.00,0.243
330.00,0.262
332.00,0.290
334.00,0.329
336.00,0.379
338.00,0.443
340.00,0.512
342.00,0.590
344.00,0.664
346.00,0.736
348.00,0.802
350.00,0.855
352.00,0.908
354.00,0.956
356.00,1.000
358.00,1.047
360.00,1.097
362.00,1.148
364.00,1.204
366.00,1.256
368.00,1.319
370.00,1.383
372.00,1.439
374.00,1.505
376.00,1.560
378.00,1.617
380.00,1.674
382.00,1.732
384.00,1.785
386.00,1.844
388.00,1.897
390.00,1.966
392.00,2.017
394.00,2.082
396.00,2.160
398.00,2.214
400.00,2.301
402.00,2.368
404.00,2.433
406.00,2.512
408.00,2.585
410.00,2.640
412.00,2.712
414.00,2.768
416.00,2.814
418.00,2.831
420.00,2.854
422.00,2.906
424.00,2.912
426.00,2.910
428.00,2.903
430.00,2.883
432.00,2.902
434.00,2.857
436.00,2.833
438.00,2.797
440.00,2.726
442.00,2.669
444.00,2.608
446.00,2.527
448.00,2.462
450.00,2.373
452.00,2.299
454.00,2.213
456.00,2.125
458.00,2.036
460.00,1.948
462.00,1.865
464.00,1.780
466.00,1.700
468.00,1.622
470.00,1.545
472.00,1.476
474.00,1.405
476.00,1.339
478.00,1.277
480.00,1.218
482.00,1.164
484.00,1.110
486.00,1.058
488.00,1.010
490.00,0.965
492.00,0.923
494.00,0.883
496.00,0.845
498.00,0.809
500.00,0.775
502.00,0.744
504.00,0.713
506.00,0.684
508.00,0.656
510.00,0.629
512.00,0.604
514.00,0.581
516.00,0.558
518.00,0.537
520.00,0.516
522.00,0.497
524.00,0.479
526.00,0.462
528.00,0.446
530.00,0.431
532.00,0.417
534.00,0.403
536.00,0.390
538.00,0.377
540.00,0.366
542.00,0.355
544.00,0.344
546.00,0.334
548.00,0.325
550.00,0.316
552.00,0.307
554.00,0.299
556.00,0.292
558.00,0.284
560.00,0.277
562.00,0.270
564.00,0.264
566.00,0.258
568.00,0.252
570.00,0.246
572.00,0.241
574.00,0.236
576.00,0.231
578.00,0.226
580.00,0.221
582.00,0.217
584.00,0.213
586.00,0.209
588.00,0.205
590.00,0.201
592.00,0.197
594.00,0.194
596.00,0.190
598.00,0.187
600.00,0.184
602.00,0.181
604.00,0.178
606.00,0.175
608.00,0.173
610.00,0.170
612.00,0.167
614.00,0.165
616.00,0.162
618.00,0.160
620.00,0.158
622.00,0.156
624.00,0.153
626.00,0.151
628.00,0.149
630.00,0.147
632.00,0.145
634.00,0.143
636.00,0.142
638.00,0.140
640.00,0.138
642.00,0.136
644.00,0.135
646.00,0.133
648.00,0.131
650.00,0.130
652.00,0.129
654.00,0.127
656.00,0.126
658.00,0.124
660.00,0.123
662.00,0.121
664.00,0.120
666.00,0.119
668.00,0.118
670.00,0.116
672.00,0.115
674.00,0.114
676.00,0.113
678.00,0.112
680.00,0.111
682.00,0.109
684.00,0.108
686.00,0.107
688.00,0.106
690.00,0.105
692.00,0.104
694.00,0.103
696.00,0.102
698.00,0.101
700.00,0.100
702.00,0.099
704.00,0.098
706.00,0.097
708.00,0.097
710.00,0.096
712.00,0.095
714.00,0.094
716.00,0.093
718.00,0.092
720.00,0.092
722.00,0.091
724.00,0.090
726.00,0.089
728.00,0.088
730.00,0.088
732.00,0.087
734.00,0.086
736.00,0.085
738.00,0.084
740.00,0.084
742.00,0.083
744.00,0.082
746.00,0.082
748.00,0.081
750.00,0.080
752.00,0.079
754.00,0.079
756.00,0.078
758.00,0.077
760.00,0.077
762.00,0.076
764.00,0.076
766.00,0.075
768.00,0.074
770.00,0.074
772.00,0.073
774.00,0.073
776.00,0.072
778.00,0.071
780.00,0.071
782.00,0.070
784.00,0.070
786.00,0.069
788.00,0.069
790.00,0.068
792.00,0.068
794.00,0.067
796.00,0.067
798.00,0.066
800.00,0.066